Data from c2t_JH05_50uM_Absorbance_11-14-28-037.txt Node
Date: Thu Dec 21 11:14:28 GMT 2017
User: egn-admin
Spectrometer: OFX00224
Trigger mode: 0
Integration Time (sec): 5.000000E-2
Scans to average: 1
Nonlinearity correction enabled: false
Boxcar width: 0
Storing dark spectrum: false
XAxis mode: Wavelengths
Number of Pixels in Spectrum: 2136
>>>>>Begin Spectral Data<<<<<
154.91	1.04
155.289	0.2
155.669	-0.06
156.048	0.19
156.428	-0.88
156.807	-0
157.186	-0
157.566	0.12
157.945	-0
158.325	-0
158.704	-0
159.083	-0
159.462	0.05
159.842	-0
160.221	-0
160.6	-0.24
160.979	-0.7
161.359	-0
161.738	0.14
162.117	-0.3
162.496	-0
162.875	-0.48
163.254	0.04
163.633	-0.18
164.012	0.6
164.391	-0.6
164.77	-0
165.149	-0
165.528	-0
165.907	-1.08
166.286	-0
166.665	0.3
167.044	0.42
167.423	-0.48
167.802	-0
168.181	-0
168.559	-0
168.938	0.37
169.317	0.32
169.696	0.3
170.074	0.48
170.453	0.06
170.832	0.15
171.21	0.1
171.589	0.54
171.968	-0.41
172.346	0.03
172.725	0.22
173.103	-0
173.482	-0.03
173.861	-0
174.239	-0.2
174.617	-0.06
174.996	0.4
175.374	-0
175.753	-0.6
176.131	-0
176.51	-0.22
176.888	0.18
177.266	-0.14
177.645	0.4
178.023	0.09
178.401	-0.57
178.779	0.1
179.158	0.12
179.536	-0
179.914	-0.18
180.292	0.3
180.67	0.29
181.048	-0
181.427	-0
181.805	-0
182.183	0.65
182.561	-0
182.939	-0.14
183.317	-0.27
183.695	-0.12
184.073	-0.38
184.451	-0
184.829	0.1
185.206	-0.03
185.584	-0.41
185.962	-0.3
186.34	0.4
186.718	-0.03
187.096	-0
187.473	0.43
187.851	-0.22
188.229	0.24
188.607	-0.16
188.984	0.7
189.362	-0.16
189.74	0.21
190.117	0.68
190.495	0.03
190.872	-0.01
191.25	0.44
191.627	0.04
192.005	0.1
192.382	-0.42
192.76	-0.04
193.137	-0.3
193.515	-0.07
193.892	0.09
194.269	-0.09
194.647	0.11
195.024	-0.26
195.401	-0.21
195.779	0.17
196.156	-0.01
196.533	-0.18
196.91	0.34
197.288	0.18
197.665	-1.54
198.042	0.16
198.419	-0.15
198.796	0.08
199.173	-0
199.55	-0.48
199.927	-0.45
200.304	0.01
200.681	-0.35
201.058	0.24
201.435	-0.09
201.812	-0.16
202.189	0.26
202.566	0.19
202.943	0.36
203.32	0.15
203.697	0.2
204.073	0.07
204.45	0.69
204.827	0.39
205.204	-0.15
205.58	0.21
205.957	-0.14
206.334	-0.01
206.71	-0.2
207.087	0.05
207.464	-0.06
207.84	0.15
208.217	0.07
208.593	-0.11
208.97	-0.27
209.346	-0.1
209.723	0.2
210.099	0.25
210.476	0.45
210.852	0.33
211.228	-0
211.605	0.07
211.981	0.16
212.357	0.27
212.733	-0.1
213.11	-0.1
213.486	0.03
213.862	-0
214.238	0.05
214.614	-0
214.991	-0.17
215.367	-0.17
215.743	-0
216.119	0.6
216.495	-0.01
216.871	-0
217.247	0.24
217.623	0.22
217.999	-0.09
218.375	-0.03
218.751	0.45
219.127	0.2
219.502	0.12
219.878	0.15
220.254	-0.2
220.63	0.16
221.006	0.12
221.381	-0.15
221.757	0.67
222.133	0.25
222.508	0.2
222.884	0.1
223.26	0.05
223.635	0.1
224.011	-0.18
224.386	0.2
224.762	0.39
225.137	0.09
225.513	0.12
225.888	-0.59
226.264	0.33
226.639	0.19
227.014	-0.05
227.39	0.41
227.765	-0.03
228.14	0.12
228.516	0.08
228.891	-0.02
229.266	-0.03
229.641	-0
230.017	0.2
230.392	-0.08
230.767	-0.19
231.142	-0.33
231.517	0.3
231.892	0.15
232.267	0.71
232.642	0.23
233.017	-0
233.392	0.58
233.767	0.09
234.142	0.04
234.517	0.12
234.892	0.7
235.267	0.15
235.641	-0.09
236.016	-0
236.391	0.01
236.766	0.3
237.14	0.32
237.515	0.32
237.89	0.12
238.264	0.94
238.639	-0.05
239.014	0.04
239.388	0.12
239.763	0.18
240.137	0.12
240.512	0.24
240.886	0.29
241.261	0.04
241.635	0.28
242.009	0.06
242.384	-0.03
242.758	-0.09
243.132	0.15
243.507	0.13
243.881	0.2
244.255	0.21
244.629	0.2
245.004	0.72
245.378	0.18
245.752	0.23
246.126	0.03
246.5	0.01
246.874	0.15
247.248	0.13
247.622	-0.05
247.996	0.08
248.37	0.08
248.744	0.26
249.118	-0.06
249.492	-0
249.866	0.18
250.24	0.1
250.613	0.02
250.987	0.28
251.361	0.27
251.735	0.15
252.108	0.1
252.482	0.2
252.856	0.32
253.229	0.16
253.603	0.3
253.977	0.26
254.35	0.18
254.724	0.12
255.097	0.4
255.471	0.27
255.844	0.18
256.218	0.19
256.591	0.27
256.964	0.32
257.338	0.3
257.711	0.31
258.084	0.35
258.458	0.32
258.831	0.38
259.204	0.31
259.577	0.27
259.95	0.26
260.323	0.27
260.697	0.2
261.07	0.21
261.443	0.29
261.816	0.25
262.189	0.16
262.562	0.24
262.935	0.33
263.308	0.25
263.68	0.2
264.053	0.27
264.426	0.23
264.799	0.23
265.172	0.26
265.545	0.19
265.917	0.25
266.29	0.26
266.663	0.23
267.035	0.23
267.408	0.25
267.781	0.22
268.153	0.2
268.526	0.24
268.898	0.19
269.271	0.18
269.643	0.2
270.016	0.27
270.388	0.2
270.76	0.17
271.133	0.19
271.505	0.15
271.877	0.16
272.25	0.19
272.622	0.15
272.994	0.18
273.366	0.16
273.739	0.18
274.111	0.17
274.483	0.17
274.855	0.16
275.227	0.18
275.599	0.18
275.971	0.17
276.343	0.17
276.715	0.16
277.087	0.17
277.459	0.17
277.831	0.18
278.203	0.15
278.574	0.17
278.946	0.16
279.318	0.17
279.69	0.17
280.061	0.17
280.433	0.18
280.805	0.17
281.176	0.18
281.548	0.18
281.92	0.17
282.291	0.17
282.663	0.18
283.034	0.18
283.406	0.19
283.777	0.18
284.148	0.19
284.52	0.19
284.891	0.2
285.262	0.2
285.634	0.2
286.005	0.2
286.376	0.21
286.747	0.22
287.119	0.22
287.49	0.21
287.861	0.22
288.232	0.22
288.603	0.23
288.974	0.23
289.345	0.22
289.716	0.25
290.087	0.24
290.458	0.24
290.829	0.23
291.2	0.25
291.571	0.25
291.941	0.25
292.312	0.25
292.683	0.25
293.054	0.26
293.424	0.27
293.795	0.28
294.166	0.26
294.536	0.28
294.907	0.27
295.277	0.28
295.648	0.26
296.018	0.28
296.389	0.28
296.759	0.29
297.13	0.29
297.5	0.28
297.871	0.28
298.241	0.3
298.611	0.29
298.981	0.3
299.352	0.3
299.722	0.29
300.092	0.31
300.462	0.31
300.832	0.3
301.202	0.31
301.573	0.33
301.943	0.31
302.313	0.33
302.683	0.32
303.053	0.31
303.422	0.33
303.792	0.34
304.162	0.34
304.532	0.35
304.902	0.35
305.272	0.34
305.641	0.35
306.011	0.35
306.381	0.35
306.75	0.36
307.12	0.37
307.49	0.37
307.859	0.37
308.229	0.37
308.598	0.38
308.968	0.38
309.337	0.38
309.707	0.38
310.076	0.39
310.445	0.39
310.815	0.38
311.184	0.39
311.553	0.39
311.923	0.41
312.292	0.4
312.661	0.41
313.03	0.41
313.399	0.42
313.768	0.42
314.137	0.41
314.506	0.42
314.875	0.42
315.244	0.43
315.613	0.43
315.982	0.43
316.351	0.44
316.72	0.44
317.089	0.45
317.458	0.45
317.826	0.45
318.195	0.46
318.564	0.46
318.933	0.45
319.301	0.47
319.67	0.47
320.038	0.47
320.407	0.46
320.775	0.47
321.144	0.49
321.512	0.49
321.881	0.48
322.249	0.49
322.618	0.49
322.986	0.49
323.354	0.49
323.723	0.5
324.091	0.51
324.459	0.5
324.827	0.51
325.195	0.51
325.564	0.52
325.932	0.53
326.3	0.53
326.668	0.53
327.036	0.52
327.404	0.53
327.772	0.53
328.14	0.53
328.508	0.51
328.875	0.53
329.243	0.55
329.611	0.57
329.979	0.56
330.346	0.55
330.714	0.55
331.082	0.53
331.449	0.54
331.817	0.55
332.185	0.55
332.552	0.57
332.92	0.56
333.287	0.57
333.655	0.58
334.022	0.58
334.389	0.6
334.757	0.59
335.124	0.59
335.491	0.58
335.859	0.58
336.226	0.57
336.593	0.58
336.96	0.59
337.327	0.58
337.695	0.6
338.062	0.59
338.429	0.62
338.796	0.6
339.163	0.61
339.53	0.61
339.897	0.6
340.263	0.61
340.63	0.62
340.997	0.59
341.364	0.61
341.731	0.62
342.097	0.63
342.464	0.6
342.831	0.6
343.197	0.61
343.564	0.61
343.931	0.61
344.297	0.61
344.664	0.63
345.03	0.6
345.396	0.62
345.763	0.62
346.129	0.61
346.496	0.61
346.862	0.64
347.228	0.61
347.594	0.61
347.961	0.6
348.327	0.62
348.693	0.61
349.059	0.62
349.425	0.63
349.791	0.62
350.157	0.62
350.523	0.61
350.889	0.62
351.255	0.61
351.621	0.61
351.987	0.6
352.353	0.61
352.719	0.63
353.084	0.61
353.45	0.6
353.816	0.61
354.181	0.62
354.547	0.6
354.913	0.61
355.278	0.61
355.644	0.6
356.009	0.58
356.375	0.58
356.74	0.6
357.106	0.58
357.471	0.58
357.836	0.58
358.202	0.58
358.567	0.57
358.932	0.59
359.297	0.56
359.663	0.57
360.028	0.57
360.393	0.57
360.758	0.56
361.123	0.55
361.488	0.55
361.853	0.54
362.218	0.55
362.583	0.53
362.948	0.54
363.312	0.54
363.677	0.55
364.042	0.52
364.407	0.53
364.772	0.53
365.136	0.52
365.501	0.52
365.865	0.52
366.23	0.51
366.595	0.51
366.959	0.5
367.324	0.49
367.688	0.51
368.052	0.48
368.417	0.48
368.781	0.47
369.145	0.47
369.51	0.46
369.874	0.47
370.238	0.46
370.602	0.45
370.967	0.44
371.331	0.45
371.695	0.45
372.059	0.43
372.423	0.43
372.787	0.45
373.151	0.44
373.515	0.44
373.878	0.43
374.242	0.43
374.606	0.42
374.97	0.41
375.334	0.4
375.697	0.4
376.061	0.4
376.425	0.39
376.788	0.4
377.152	0.38
377.515	0.4
377.879	0.37
378.242	0.37
378.606	0.36
378.969	0.37
379.333	0.36
379.696	0.35
380.059	0.34
380.422	0.35
380.786	0.34
381.149	0.33
381.512	0.33
381.875	0.32
382.238	0.31
382.601	0.31
382.964	0.29
383.327	0.29
383.69	0.29
384.053	0.29
384.416	0.28
384.779	0.28
385.142	0.27
385.504	0.27
385.867	0.26
386.23	0.26
386.593	0.26
386.955	0.26
387.318	0.26
387.68	0.24
388.043	0.24
388.405	0.24
388.768	0.23
389.13	0.23
389.493	0.23
389.855	0.23
390.217	0.23
390.58	0.23
390.942	0.21
391.304	0.22
391.666	0.21
392.028	0.21
392.391	0.21
392.753	0.2
393.115	0.21
393.477	0.2
393.839	0.2
394.201	0.2
394.563	0.21
394.924	0.2
395.286	0.2
395.648	0.18
396.01	0.18
396.371	0.19
396.733	0.18
397.095	0.18
397.456	0.19
397.818	0.17
398.18	0.17
398.541	0.18
398.903	0.17
399.264	0.17
399.625	0.17
399.987	0.18
400.348	0.18
400.709	0.17
401.071	0.17
401.432	0.17
401.793	0.17
402.154	0.16
402.515	0.17
402.876	0.16
403.238	0.17
403.599	0.17
403.96	0.16
404.32	0.16
404.681	0.17
405.042	0.18
405.403	0.16
405.764	0.16
406.125	0.18
406.485	0.17
406.846	0.18
407.207	0.17
407.567	0.16
407.928	0.17
408.288	0.16
408.649	0.16
409.009	0.16
409.37	0.16
409.73	0.16
410.091	0.14
410.451	0.16
410.811	0.16
411.171	0.15
411.532	0.14
411.892	0.15
412.252	0.15
412.612	0.15
412.972	0.16
413.332	0.15
413.692	0.15
414.052	0.16
414.412	0.16
414.772	0.16
415.132	0.16
415.492	0.16
415.851	0.16
416.211	0.16
416.571	0.16
416.931	0.17
417.29	0.16
417.65	0.17
418.009	0.17
418.369	0.16
418.728	0.17
419.088	0.16
419.447	0.16
419.807	0.15
420.166	0.15
420.525	0.16
420.884	0.16
421.244	0.17
421.603	0.16
421.962	0.15
422.321	0.17
422.68	0.16
423.039	0.17
423.398	0.16
423.757	0.15
424.116	0.16
424.475	0.17
424.834	0.17
425.193	0.17
425.551	0.15
425.91	0.15
426.269	0.16
426.628	0.17
426.986	0.15
427.345	0.16
427.703	0.16
428.062	0.17
428.42	0.17
428.779	0.16
429.137	0.16
429.496	0.15
429.854	0.17
430.212	0.16
430.57	0.16
430.929	0.16
431.287	0.15
431.645	0.15
432.003	0.16
432.361	0.16
432.719	0.16
433.077	0.16
433.435	0.15
433.793	0.16
434.151	0.15
434.509	0.15
434.866	0.16
435.224	0.15
435.582	0.16
435.94	0.15
436.297	0.14
436.655	0.15
437.012	0.16
437.37	0.15
437.727	0.15
438.085	0.16
438.442	0.14
438.8	0.15
439.157	0.14
439.514	0.15
439.872	0.14
440.229	0.14
440.586	0.14
440.943	0.16
441.3	0.13
441.657	0.13
442.014	0.14
442.371	0.15
442.728	0.14
443.085	0.15
443.442	0.14
443.799	0.13
444.156	0.13
444.513	0.13
444.869	0.13
445.226	0.15
445.583	0.15
445.939	0.13
446.296	0.14
446.652	0.13
447.009	0.13
447.365	0.13
447.722	0.12
448.078	0.12
448.434	0.13
448.791	0.13
449.147	0.1
449.503	0.12
449.859	0.12
450.215	0.12
450.571	0.11
450.928	0.11
451.284	0.11
451.64	0.11
451.995	0.12
452.351	0.11
452.707	0.1
453.063	0.12
453.419	0.12
453.775	0.11
454.13	0.12
454.486	0.11
454.842	0.11
455.197	0.11
455.553	0.1
455.908	0.09
456.264	0.1
456.619	0.1
456.975	0.09
457.33	0.08
457.685	0.09
458.04	0.1
458.396	0.09
458.751	0.09
459.106	0.09
459.461	0.09
459.816	0.09
460.171	0.09
460.526	0.08
460.881	0.08
461.236	0.09
461.591	0.08
461.946	0.08
462.301	0.07
462.655	0.08
463.01	0.07
463.365	0.07
463.719	0.06
464.074	0.07
464.428	0.07
464.783	0.06
465.137	0.05
465.492	0.06
465.846	0.06
466.201	0.06
466.555	0.06
466.909	0.07
467.263	0.05
467.618	0.06
467.972	0.05
468.326	0.05
468.68	0.05
469.034	0.05
469.388	0.05
469.742	0.05
470.096	0.04
470.45	0.04
470.804	0.04
471.157	0.03
471.511	0.03
471.865	0.05
472.218	0.04
472.572	0.03
472.926	0.03
473.279	0.04
473.633	0.04
473.986	0.03
474.34	0.03
474.693	0.03
475.046	0.03
475.4	0.03
475.753	0.03
476.106	0.02
476.459	0.03
476.812	0.03
477.165	0.02
477.519	0.02
477.872	0.02
478.224	0.02
478.577	0.03
478.93	0.03
479.283	0.03
479.636	0.01
479.989	0.02
480.341	0.01
480.694	0.03
481.047	0.02
481.399	0.01
481.752	0.01
482.104	0.02
482.457	0.02
482.809	0.01
483.162	0.01
483.514	0
483.866	0
484.219	0
484.571	0
484.923	0.01
485.275	0.02
485.627	0.01
485.979	0.01
486.331	0.01
486.683	0.01
487.035	0.01
487.387	0.02
487.739	0.03
488.091	0.02
488.443	0
488.794	0.01
489.146	-0
489.498	0
489.849	-0
490.201	0
490.552	0
490.904	0
491.255	-0
491.607	0.01
491.958	0.01
492.309	0.01
492.661	-0.01
493.012	-0.01
493.363	0.01
493.714	0
494.065	0
494.416	0.01
494.767	0
495.118	0
495.469	0.01
495.82	0
496.171	0.01
496.522	-0
496.872	0.02
497.223	-0
497.574	-0.02
497.924	-0.01
498.275	0.02
498.626	0.01
498.976	-0
499.327	-0.01
499.677	-0.01
500.027	-0
500.378	-0.01
500.728	-0.02
501.078	-0.01
501.428	-0.01
501.779	-0.02
502.129	-0.02
502.479	-0.02
502.829	-0.01
503.179	-0.01
503.529	-0.01
503.879	-0
504.229	-0.01
504.578	-0.02
504.928	-0
505.278	-0.02
505.628	-0.01
505.977	-0.02
506.327	-0.01
506.676	-0.02
507.026	-0.01
507.375	-0.02
507.725	-0.03
508.074	-0.02
508.424	-0.02
508.773	-0.01
509.122	-0.03
509.471	-0.01
509.82	-0.02
510.17	-0.01
510.519	-0.01
510.868	-0.03
511.217	-0.01
511.566	-0.02
511.915	-0.01
512.263	-0.02
512.612	-0
512.961	-0.01
513.31	-0.01
513.659	-0.01
514.007	-0.03
514.356	-0.01
514.704	-0.01
515.053	-0.02
515.401	-0.02
515.75	-0.01
516.098	-0.03
516.447	-0.02
516.795	-0.03
517.143	-0.03
517.491	-0.02
517.839	-0.04
518.188	-0.03
518.536	-0.02
518.884	-0.02
519.232	-0.03
519.58	-0.03
519.928	-0.01
520.275	-0.02
520.623	-0.01
520.971	-0.01
521.319	-0.01
521.666	-0.04
522.014	-0.03
522.362	-0.03
522.709	-0.03
523.057	-0.03
523.404	-0.03
523.752	-0.01
524.099	-0.04
524.446	-0.02
524.794	-0.04
525.141	-0.03
525.488	-0.02
525.835	-0.03
526.182	-0.01
526.529	-0.02
526.876	-0.03
527.223	-0.02
527.57	-0.03
527.917	-0.03
528.264	-0.03
528.611	-0.03
528.958	-0.04
529.304	-0.02
529.651	-0.03
529.998	-0.03
530.344	-0.04
530.691	-0.04
531.037	-0.03
531.384	-0.03
531.73	-0.03
532.076	-0.03
532.423	-0.04
532.769	-0.03
533.115	-0.02
533.461	-0.03
533.807	-0.03
534.154	-0.01
534.5	-0.02
534.846	-0.03
535.192	-0.03
535.537	-0.03
535.883	-0.03
536.229	-0.03
536.575	-0.03
536.921	-0.01
537.266	-0.03
537.612	-0.03
537.957	-0
538.303	-0.04
538.649	-0.02
538.994	-0.05
539.339	-0.02
539.685	-0.02
540.03	-0.03
540.375	-0.03
540.721	-0.03
541.066	-0.02
541.411	-0.03
541.756	-0.03
542.101	-0.03
542.446	-0.02
542.791	-0.02
543.136	-0.02
543.481	-0.04
543.825	-0.03
544.17	-0.04
544.515	-0.02
544.86	-0.04
545.204	-0.04
545.549	-0.03
545.893	-0.05
546.238	-0.03
546.582	-0.03
546.927	-0.04
547.271	-0.03
547.615	-0.03
547.96	-0.04
548.304	-0.03
548.648	-0.04
548.992	-0.03
549.336	-0.03
549.68	-0.02
550.024	-0.04
550.368	-0.03
550.712	-0.04
551.056	-0.03
551.4	-0.02
551.743	-0.03
552.087	-0.02
552.431	-0.02
552.774	-0.03
553.118	-0.03
553.462	-0.03
553.805	-0.03
554.148	-0.03
554.492	-0.02
554.835	-0.03
555.178	-0.02
555.522	-0.04
555.865	-0.03
556.208	-0.03
556.551	-0.04
556.894	-0.04
557.237	-0.03
557.58	-0.04
557.923	-0.04
558.266	-0.03
558.609	-0.03
558.952	-0.04
559.294	-0.02
559.637	-0.04
559.98	-0.04
560.322	-0.02
560.665	-0.04
561.007	-0.03
561.35	-0.05
561.692	-0.02
562.034	-0.03
562.377	-0.04
562.719	-0.03
563.061	-0.03
563.403	-0.03
563.745	-0.03
564.088	-0.02
564.43	-0.03
564.772	-0.03
565.113	-0.02
565.455	-0.03
565.797	-0.03
566.139	-0.04
566.481	-0.03
566.822	-0.04
567.164	-0.03
567.506	-0.03
567.847	-0.03
568.189	-0.02
568.53	-0.04
568.872	-0.03
569.213	-0.02
569.554	-0.03
569.895	-0.03
570.237	-0.02
570.578	-0.02
570.919	-0.03
571.26	-0.03
571.601	-0.03
571.942	-0.02
572.283	-0.02
572.624	-0.03
572.965	-0.02
573.306	-0.04
573.646	-0.03
573.987	-0.03
574.328	-0.04
574.668	-0.02
575.009	-0.04
575.349	-0.04
575.69	-0.02
576.03	-0.03
576.37	-0.03
576.711	-0.04
577.051	-0.04
577.391	-0.03
577.731	-0.04
578.072	-0.03
578.412	-0.03
578.752	-0.03
579.092	-0.03
579.431	-0.02
579.771	-0.02
580.111	-0.01
580.451	-0.03
580.791	-0.03
581.13	-0.02
581.47	-0.04
581.81	-0.03
582.149	-0.03
582.489	-0.03
582.828	-0.03
583.167	-0.03
583.507	-0.02
583.846	-0.03
584.185	-0.03
584.525	-0.03
584.864	-0.03
585.203	-0.03
585.542	-0.03
585.881	-0.03
586.22	-0.03
586.559	-0.03
586.898	-0.03
587.236	-0.03
587.575	-0.03
587.914	-0.03
588.252	-0.04
588.591	-0.04
588.93	-0.03
589.268	-0.04
589.607	-0.02
589.945	-0.02
590.283	-0.03
590.622	-0.03
590.96	-0.03
591.298	-0.03
591.636	-0.04
591.974	-0.04
592.313	-0.03
592.651	-0.03
592.989	-0.04
593.326	-0.03
593.664	-0.04
594.002	-0.04
594.34	-0.03
594.678	-0.03
595.015	-0.03
595.353	-0.02
595.691	-0.03
596.028	-0.03
596.366	-0.04
596.703	-0.03
597.04	-0.04
597.378	-0.02
597.715	-0.04
598.052	-0.04
598.389	-0.05
598.726	-0.04
599.064	-0.05
599.401	-0.05
599.738	-0.04
600.074	-0.04
600.411	-0.04
600.748	-0.04
601.085	-0.03
601.422	-0.03
601.758	-0.02
602.095	-0.02
602.432	-0.02
602.768	-0.03
603.105	-0.03
603.441	-0.02
603.777	-0.02
604.114	-0.03
604.45	-0.03
604.786	-0.03
605.122	-0.02
605.459	-0.04
605.795	-0.03
606.131	-0.03
606.467	-0.02
606.803	-0.03
607.139	-0.03
607.474	-0.03
607.81	-0.03
608.146	-0.03
608.482	-0.03
608.817	-0.03
609.153	-0.03
609.488	-0.03
609.824	-0.03
610.159	-0.05
610.495	-0.05
610.83	-0.03
611.165	-0.03
611.5	-0.05
611.836	-0.04
612.171	-0.03
612.506	-0.04
612.841	-0.03
613.176	-0.04
613.511	-0.04
613.845	-0.05
614.18	-0.04
614.515	-0.04
614.85	-0.05
615.184	-0.03
615.519	-0.03
615.854	-0.03
616.188	-0.04
616.523	-0.03
616.857	-0.03
617.191	-0.03
617.526	-0.02
617.86	-0.03
618.194	-0.04
618.528	-0.04
618.862	-0.05
619.196	-0.03
619.53	-0.04
619.864	-0.05
620.198	-0.02
620.532	-0.03
620.866	-0.04
621.2	-0.05
621.533	-0.04
621.867	-0.04
622.201	-0.03
622.534	-0.04
622.868	-0.03
623.201	-0.04
623.534	-0.04
623.868	-0.03
624.201	-0.04
624.534	-0.02
624.868	-0.04
625.201	-0.02
625.534	-0.03
625.867	-0.03
626.2	-0.03
626.533	-0.03
626.865	-0.05
627.198	-0.04
627.531	-0.05
627.864	-0.04
628.196	-0.05
628.529	-0.04
628.862	-0.04
629.194	-0.03
629.527	-0.04
629.859	-0.04
630.191	-0.04
630.524	-0.04
630.856	-0.05
631.188	-0.04
631.52	-0.04
631.852	-0.04
632.184	-0.04
632.516	-0.04
632.848	-0.04
633.18	-0.05
633.512	-0.04
633.844	-0.04
634.175	-0.04
634.507	-0.04
634.839	-0.05
635.17	-0.04
635.502	-0.05
635.833	-0.04
636.165	-0.04
636.496	-0.05
636.827	-0.03
637.159	-0.04
637.49	-0.03
637.821	-0.04
638.152	-0.03
638.483	-0.03
638.814	-0.04
639.145	-0.05
639.476	-0.04
639.807	-0.04
640.137	-0.05
640.468	-0.04
640.799	-0.04
641.129	-0.04
641.46	-0.05
641.791	-0.07
642.121	-0.07
642.451	-0.05
642.782	-0.05
643.112	-0.05
643.442	-0.05
643.773	-0.05
644.103	-0.05
644.433	-0.04
644.763	-0.03
645.093	-0.05
645.423	-0.04
645.753	-0.04
646.082	-0.05
646.412	-0.04
646.742	-0.04
647.072	-0.05
647.401	-0.04
647.731	-0.03
648.06	-0.04
648.39	-0.05
648.719	-0.04
649.048	-0.04
649.378	-0.03
649.707	-0.04
650.036	-0.04
650.365	-0.05
650.694	-0.04
651.023	-0.04
651.352	-0.04
651.681	-0.03
652.01	-0.04
652.339	-0.03
652.668	-0.04
652.996	-0.03
653.325	-0.04
653.654	-0.04
653.982	-0.03
654.311	-0.04
654.639	-0.04
654.967	-0.04
655.296	-0.04
655.624	-0.06
655.952	-0.06
656.28	-0.07
656.609	-0.05
656.937	-0.05
657.265	-0.03
657.593	-0.01
657.92	-0.01
658.248	-0.01
658.576	-0.03
658.904	-0.03
659.231	-0.04
659.559	-0.03
659.887	-0.03
660.214	-0.03
660.542	-0.03
660.869	-0.04
661.196	-0.04
661.524	-0.04
661.851	-0.03
662.178	-0.05
662.505	-0.05
662.832	-0.03
663.159	-0.04
663.486	-0.04
663.813	-0.04
664.14	-0.04
664.467	-0.04
664.794	-0.03
665.12	-0.04
665.447	-0.04
665.774	-0.04
666.1	-0.05
666.427	-0.07
666.753	-0.03
667.079	-0.05
667.406	-0.03
667.732	-0.04
668.058	-0.03
668.384	-0.04
668.71	-0.03
669.036	-0.04
669.362	-0.05
669.688	-0.04
670.014	-0.05
670.34	-0.04
670.666	-0.05
670.991	-0.05
671.317	-0.04
671.643	-0.06
671.968	-0.06
672.294	-0.06
672.619	-0.06
672.945	-0.06
673.27	-0.05
673.595	-0.05
673.92	-0.05
674.246	-0.06
674.571	-0.05
674.896	-0.05
675.221	-0.05
675.546	-0.07
675.87	-0.06
676.195	-0.05
676.52	-0.05
676.845	-0.05
677.169	-0.05
677.494	-0.03
677.819	-0.04
678.143	-0.03
678.468	-0.03
678.792	-0.04
679.116	-0.04
679.44	-0.03
679.765	-0.03
680.089	-0.05
680.413	-0.03
680.737	-0.04
681.061	-0.04
681.385	-0.04
681.709	-0.04
682.033	-0.05
682.356	-0.04
682.68	-0.04
683.004	-0.05
683.327	-0.04
683.651	-0.05
683.974	-0.04
684.298	-0.07
684.621	-0.05
684.944	-0.05
685.268	-0.06
685.591	-0.04
685.914	-0.05
686.237	-0.06
686.56	-0.05
686.883	-0.05
687.206	-0.04
687.529	-0.05
687.852	-0.05
688.175	-0.04
688.497	-0.04
688.82	-0.05
689.142	-0.06
689.465	-0.06
689.787	-0.05
690.11	-0.06
690.432	-0.07
690.755	-0.07
691.077	-0.07
691.399	-0.07
691.721	-0.07
692.043	-0.05
692.365	-0.05
692.687	-0.05
693.009	-0.06
693.331	-0.06
693.653	-0.06
693.974	-0.06
694.296	-0.06
694.618	-0.06
694.939	-0.06
695.261	-0.06
695.582	-0.05
695.904	-0.06
696.225	-0.06
696.546	-0.06
696.868	-0.06
697.189	-0.05
697.51	-0.05
697.831	-0.06
698.152	-0.04
698.473	-0.05
698.794	-0.04
699.114	-0.06
699.435	-0.05
699.756	-0.05
700.077	-0.06
700.397	-0.06
700.718	-0.06
701.038	-0.05
701.359	-0.05
701.679	-0.04
701.999	-0.04
702.32	-0.05
702.64	-0.06
702.96	-0.05
703.28	-0.05
703.6	-0.05
703.92	-0.06
704.24	-0.06
704.56	-0.06
704.879	-0.05
705.199	-0.06
705.519	-0.06
705.838	-0.06
706.158	-0.06
706.478	-0.05
706.797	-0.05
707.116	-0.06
707.436	-0.04
707.755	-0.05
708.074	-0.04
708.393	-0.04
708.712	-0.04
709.031	-0.05
709.35	-0.05
709.669	-0.04
709.988	-0.03
710.307	-0.04
710.626	-0.04
710.944	-0.04
711.263	-0.05
711.582	-0.07
711.9	-0.06
712.219	-0.05
712.537	-0.06
712.855	-0.06
713.174	-0.04
713.492	-0.04
713.81	-0.06
714.128	-0.05
714.446	-0.06
714.764	-0.06
715.082	-0.04
715.4	-0.05
715.718	-0.04
716.035	-0.04
716.353	-0.03
716.671	-0.05
716.988	-0.05
717.306	-0.05
717.623	-0.04
717.941	-0.05
718.258	-0.05
718.575	-0.04
718.893	-0.05
719.21	-0.05
719.527	-0.05
719.844	-0.06
720.161	-0.05
720.478	-0.07
720.795	-0.06
721.112	-0.07
721.428	-0.06
721.745	-0.06
722.062	-0.06
722.378	-0.06
722.695	-0.06
723.011	-0.06
723.328	-0.05
723.644	-0.06
723.96	-0.05
724.276	-0.06
724.593	-0.06
724.909	-0.05
725.225	-0.07
725.541	-0.07
725.857	-0.06
726.173	-0.05
726.488	-0.06
726.804	-0.06
727.12	-0.06
727.435	-0.05
727.751	-0.06
728.067	-0.05
728.382	-0.06
728.697	-0.05
729.013	-0.06
729.328	-0.04
729.643	-0.05
729.958	-0.06
730.273	-0.04
730.588	-0.05
730.903	-0.05
731.218	-0.05
731.533	-0.04
731.848	-0.03
732.163	-0.05
732.477	-0.04
732.792	-0.04
733.107	-0.03
733.421	-0.04
733.736	-0.05
734.05	-0.05
734.364	-0.03
734.678	-0.04
734.993	-0.04
735.307	-0.04
735.621	-0.04
735.935	-0.04
736.249	-0.03
736.563	-0.04
736.877	-0.03
737.19	-0.04
737.504	-0.04
737.818	-0.04
738.131	-0.04
738.445	-0.03
738.758	-0.03
739.072	-0.05
739.385	-0.03
739.698	-0.03
740.012	-0.04
740.325	-0.03
740.638	-0.04
740.951	-0.04
741.264	-0.05
741.577	-0.03
741.89	-0.04
742.203	-0.04
742.515	-0.05
742.828	-0.03
743.141	-0.04
743.453	-0.04
743.766	-0.03
744.078	-0.05
744.391	-0.04
744.703	-0.04
745.015	-0.04
745.327	-0.03
745.639	-0.04
745.952	-0.04
746.264	-0.04
746.575	-0.03
746.887	-0.04
747.199	-0.05
747.511	-0.05
747.823	-0.05
748.134	-0.05
748.446	-0.05
748.757	-0.06
749.069	-0.05
749.38	-0.05
749.692	-0.06
750.003	-0.06
750.314	-0.05
750.625	-0.05
750.936	-0.06
751.248	-0.04
751.559	-0.05
751.869	-0.05
752.18	-0.04
752.491	-0.05
752.802	-0.06
753.112	-0.05
753.423	-0.05
753.734	-0.04
754.044	-0.07
754.355	-0.05
754.665	-0.05
754.975	-0.05
755.285	-0.04
755.596	-0.05
755.906	-0.03
756.216	-0.03
756.526	-0.02
756.836	-0.01
757.146	-0.02
757.455	-0.01
757.765	-0.01
758.075	-0.02
758.385	-0.01
758.694	0
759.004	-0.01
759.313	-0
759.622	-0
759.932	-0
760.241	-0
760.55	-0
760.859	-0.01
761.168	-0.02
761.477	-0.02
761.786	-0.04
762.095	-0.04
762.404	-0.04
762.713	-0.03
763.021	-0.03
763.33	-0.03
763.639	-0.02
763.947	-0.03
764.256	-0.03
764.564	-0.03
764.872	-0.02
765.181	-0.02
765.489	-0.02
765.797	-0.01
766.105	-0.01
766.413	-0.02
766.721	-0.03
767.029	-0.03
767.337	-0.03
767.644	-0.04
767.952	-0.03
768.26	-0.03
768.567	-0.02
768.875	-0.02
769.182	-0.03
769.49	-0.03
769.797	-0.03
770.104	-0.04
770.411	-0.03
770.718	-0.03
771.026	-0.02
771.333	-0.02
771.639	-0.02
771.946	-0.03
772.253	-0.03
772.56	-0.02
772.867	-0.03
773.173	-0.03
773.48	-0.04
773.786	-0.05
774.093	-0.04
774.399	-0.04
774.705	-0.05
775.012	-0.06
775.318	-0.02
775.624	-0.04
775.93	-0.03
776.236	-0.04
776.542	-0.03
776.848	-0.05
777.154	-0.01
777.459	-0.04
777.765	-0.03
778.071	-0.03
778.376	-0.04
778.682	-0.03
778.987	-0.02
779.292	-0.04
779.598	-0.04
779.903	-0.03
780.208	-0.03
780.513	-0.03
780.818	-0.02
781.123	-0.01
781.428	-0.01
781.733	-0.01
782.038	-0.02
782.343	-0.02
782.647	-0
782.952	-0
783.256	0
783.561	-0
783.865	-0.02
784.17	-0
784.474	0
784.778	0
785.082	0.01
785.386	0
785.69	0
785.994	-0.02
786.298	0.01
786.602	-0
786.906	0
787.209	-0.01
787.513	0.01
787.817	-0.01
788.12	0
788.424	0.01
788.727	0.01
789.03	0.01
789.333	0.02
789.637	0.01
789.94	0
790.243	-0.01
790.546	0.01
790.849	0.01
791.152	0.01
791.454	0.02
791.757	0.02
792.06	-0.01
792.362	0
792.665	-0.03
792.967	-0.02
793.27	-0
793.572	0.01
793.874	0
794.177	0.02
794.479	0.04
794.781	0.03
795.083	0.06
795.385	0
795.687	0.04
795.989	0.01
796.29	-0
796.592	0
796.894	0.02
797.195	0.05
797.497	0.01
797.798	0.02
798.1	0.01
798.401	0.01
798.702	-0.01
799.003	0.01
799.304	0.02
799.605	0.02
799.906	0.02
800.207	0.06
800.508	0.01
800.809	0.05
801.11	0.02
801.41	0.02
801.711	-0
802.011	0.02
802.312	0.02
802.612	0.03
802.913	0.05
803.213	0.06
803.513	0.04
803.813	0.04
804.113	0.02
804.413	0.07
804.713	0.01
805.013	0.06
805.313	0.04
805.613	0.04
805.912	0.06
806.212	0.05
806.511	-0.01
806.811	0.04
807.11	0.08
807.41	0.05
807.709	0.02
808.008	0.07
808.307	-0
808.606	0.08
808.905	0.01
809.204	0.07
809.503	0.04
809.802	0.05
810.101	0.04
810.399	0.02
810.698	0.03
810.997	0.05
811.295	-0.01
811.593	0.02
811.892	0.07
812.19	0.1
812.488	0.01
812.786	0.07
813.084	0.01
813.383	-0
813.68	0.07
813.978	0.06
814.276	0.08
814.574	0.09
814.872	0.09
815.169	0.09
815.467	0.03
815.764	0.07
816.062	0.01
816.359	0.05
816.656	0.05
816.954	0.04
817.251	0.02
817.548	0.05
817.845	0.05
818.142	0.02
818.439	0.01
818.735	0.02
819.032	0.02
819.329	0.07
819.626	-0.01
819.922	0.04
820.219	0.02
820.515	0.11
820.811	0.08
821.108	0.05
821.404	0.06
821.7	0.07
821.996	0.05
822.292	0.1
822.588	-0.04
822.884	0.1
823.18	0.04
823.475	0.06
823.771	0.08
824.067	0.05
824.362	-0.04
824.658	0.03
824.953	-0.01
825.249	0.08
825.544	0.02
825.839	0.05
826.134	0.01
826.429	0.07
826.724	0.08
827.019	-0.01
827.314	-0.04
827.609	0.05
827.904	-0.07
828.198	0
828.493	0.12
828.787	0.01
829.082	0.06
829.376	0.14
829.671	0.07
829.965	0.07
830.259	0.06
830.553	0.07
830.847	0.09
831.141	-0.06
831.435	-0.03
831.729	0.15
832.023	0.07
832.317	-0.02
832.61	-0.05
832.904	0.04
833.197	0.1
833.491	0.06
833.784	-0.04
834.077	-0.11
834.371	0.09
834.664	0.01
834.957	0
835.25	-0.05
835.543	0.09
835.836	0.09
836.129	-0.06
836.421	0.01
836.714	-0.06
837.007	0.04
837.299	0.04
837.592	-0
837.884	-0.01
838.177	0.05
838.469	0.02
838.761	0.03
839.053	0.12
839.345	0.2
839.637	-0.02
839.929	0.04
840.221	-0.13
840.513	-0
840.805	0.01
841.096	0.05
841.388	0.04
841.68	-0.07
841.971	-0.02
842.262	0.02
842.554	0.11
842.845	-0.12
843.136	-0.22
843.427	-0.21
843.718	-0.02
844.009	0.12
844.3	0.12
844.591	-0.06
844.882	-0.14
845.173	0.08
845.463	-0.02
845.754	-0.06
846.044	0.02
846.335	0.08
846.625	0.14
846.915	-0.16
847.206	-0.09
847.496	-0.14
847.786	-0.15
848.076	-0.44
848.366	-0.12
848.656	-0.19
848.945	-0.08
849.235	-0.04
849.525	-0.34
849.814	-0.17
850.104	0.01
850.393	-0.27
850.683	-0.2
850.972	-0.35
851.261	-0.05
851.551	-0.31
851.84	0.09
852.129	-0.07
852.418	0.06
852.707	-0.24
852.995	0.11
853.284	0.17
853.573	-0.24
853.862	-0.02
854.15	0.08
854.439	-0.17
854.727	-0.64
855.015	0.22
855.304	-0.14
855.592	-0.09
855.88	0.16
856.168	-0.15
856.456	0.07
856.744	-0.08
857.032	0.27
857.32	0.12
857.607	0.23
857.895	-0.06
858.183	-0.3
858.47	-0.06
858.757	-0
859.045	-0
859.332	-0
859.619	0.16
859.907	0.03
860.194	-0.19
860.481	-0
860.768	0.48
861.054	-0
861.341	-0
861.628	-0
861.915	-0
862.201	0.13
862.488	-0.41
862.774	-0
863.061	0.49
863.347	0.33
863.633	0.33
863.919	-0
864.205	-0
864.491	-0.39
864.777	-0
865.063	-0.24
865.349	-0
865.635	0.74
865.92	-0.51
866.206	-0.1
866.492	-0
866.777	-0
867.062	-0
867.348	-0
867.633	-0.07
867.918	-0
868.203	-0
868.488	0.4
868.773	-1.38
869.058	-0.04
869.343	-0.28
869.628	-0
869.912	0.11
870.197	0.57
870.482	-0
870.766	-1.08
871.05	-0
871.335	-0
871.619	-0.14
871.903	-0.05
872.187	0.64
872.471	-0
872.755	-0
873.039	-0.06
873.323	-0
873.607	-0.14
873.89	-0.1
874.174	0.4
874.458	-0.02
874.741	-0
875.024	0.48
875.308	0.32
875.591	-0
875.874	1.46
876.157	-0.1
876.44	-0
876.723	0.59
877.006	-0
877.289	-0.5
877.572	-0
877.854	0.19
878.137	-0.11
878.42	0.33
878.702	-0.26
878.984	0.85
879.267	-0.25
879.549	1
879.831	-0.05
880.113	-0.26
880.395	-0.3
880.677	-0.3
880.959	0.52
